PE UV       SUBTECH     SPECTRUM    ASCII       PEDS        4.00        
   -1
No3_reference_leftFromSpot.Sample.Raw.asc
22/05/24
03:22:01.00
22/05/24
03:22:01.00
Analyst

250.000000
1
Lambda 1050
1050L1210281
PerkinElmer UV WinLab 6.0.4.0738 / 1.61.00 Lambda 900

0
0
3350/servo 860.8/5
0
0
UV/VIS
1
1
1
DoubleDePol,CommonBeamDepol,RBeamAtt,SBeamAtt,150mm sphere / downward view
0
0
0
0
Program
Program
3350/servo 860.8/5
3350/0.24 860.8/0.16
3350/0.24 860.8/0.16
0
5
 
 
 
0
 
860.8
319.2
860.8
Front
100
on
S:100 R:100
0
0
0
0
 
0
 
 
 
0
 
 
0
0
0
0
0
 
 
 
 
0
0


0
0
#HDR
-1
-1
#GR
nm
%R
1.0
0.0
2000.000000
-10.000000
176
8
118.755658
97.946168
#DATA
2000.000000	99.805539
1990.000000	100.024574
1980.000000	99.990759
1970.000000	100.059597
1960.000000	102.016758
1950.000000	100.954772
1940.000000	101.294625
1930.000000	100.960070
1920.000000	100.872028
1910.000000	100.006811
1900.000000	99.975047
1890.000000	99.467457
1880.000000	98.706986
1870.000000	98.763488
1860.000000	98.256609
1850.000000	98.951973
1840.000000	98.616418
1830.000000	98.409194
1820.000000	98.950475
1810.000000	99.231739
1800.000000	98.615816
1790.000000	98.450503
1780.000000	97.946168
1770.000000	98.716034
1760.000000	99.081264
1750.000000	99.055803
1740.000000	98.677475
1730.000000	99.389102
1720.000000	98.756877
1710.000000	98.656457
1700.000000	98.546652
1690.000000	99.000248
1680.000000	98.350116
1670.000000	98.320029
1660.000000	98.329184
1650.000000	98.606979
1640.000000	99.021292
1630.000000	99.066896
1620.000000	98.717234
1610.000000	98.527838
1600.000000	98.995393
1590.000000	98.679685
1580.000000	98.793361
1570.000000	99.088821
1560.000000	99.248729
1550.000000	99.607661
1540.000000	99.235259
1530.000000	99.529162
1520.000000	99.135578
1510.000000	98.893906
1500.000000	98.954942
1490.000000	98.908139
1480.000000	99.515446
1470.000000	98.918217
1460.000000	99.367746
1450.000000	99.229759
1440.000000	99.704949
1430.000000	99.683965
1420.000000	98.759567
1410.000000	98.724164
1400.000000	98.620549
1390.000000	99.325891
1380.000000	98.406412
1370.000000	98.704839
1360.000000	98.902683
1350.000000	98.407463
1340.000000	98.578688
1330.000000	99.054145
1320.000000	98.239286
1310.000000	98.910700
1300.000000	99.130482
1290.000000	98.888784
1280.000000	98.837124
1270.000000	98.981686
1260.000000	99.551838
1250.000000	98.839578
1240.000000	98.666189
1230.000000	98.223440
1220.000000	98.140453
1210.000000	99.072575
1200.000000	98.953946
1190.000000	98.715804
1180.000000	98.811581
1170.000000	98.931716
1160.000000	98.623701
1150.000000	99.168307
1140.000000	99.352496
1130.000000	99.598302
1120.000000	98.503435
1110.000000	98.749306
1100.000000	99.400454
1090.000000	99.104460
1080.000000	99.287882
1070.000000	98.923709
1060.000000	98.290237
1050.000000	98.613663
1040.000000	99.549126
1030.000000	99.206266
1020.000000	98.729941
1010.000000	98.998600
1000.000000	98.907321
990.000000	98.482613
980.000000	98.726546
970.000000	98.577144
960.000000	98.816827
950.000000	99.230140
940.000000	98.574490
930.000000	99.092336
920.000000	99.025787
910.000000	99.003161
900.000000	98.522723
890.000000	98.658622
880.000000	98.712466
870.000000	98.101282
860.000000	98.668005
850.000000	98.512959
840.000000	98.507647
830.000000	98.744510
820.000000	98.841909
810.000000	99.145384
800.000000	98.972725
790.000000	98.861487
780.000000	98.899689
770.000000	98.795151
760.000000	98.926926
750.000000	98.918526
740.000000	98.930335
730.000000	98.954722
720.000000	98.758744
710.000000	98.887165
700.000000	98.991643
690.000000	98.985650
680.000000	98.884513
670.000000	98.973616
660.000000	98.960022
650.000000	98.984193
640.000000	98.988675
630.000000	99.031619
620.000000	99.082031
610.000000	98.992400
600.000000	99.078724
590.000000	99.192888
580.000000	99.089235
570.000000	98.998654
560.000000	99.089279
550.000000	99.122707
540.000000	99.153012
530.000000	99.074923
520.000000	99.228904
510.000000	99.278628
500.000000	99.208323
490.000000	99.256936
480.000000	99.174435
470.000000	99.223420
460.000000	99.283838
450.000000	99.395562
440.000000	99.397062
430.000000	99.508367
420.000000	99.612099
410.000000	99.716374
400.000000	99.902850
390.000000	100.008759
380.000000	100.038579
370.000000	100.434744
360.000000	100.945611
350.000000	100.991356
340.000000	101.640763
330.000000	102.504921
320.000000	103.576580
310.000000	105.082177
300.000000	105.630879
290.000000	108.292550
280.000000	111.086066
270.000000	113.182884
260.000000	114.289594
250.000000	118.755658
