PE UV       SUBTECH     SPECTRUM    ASCII       PEDS        4.00        
   -1
No7_reference_centerSpot.Sample.Raw.asc
22/05/24
03:43:45.00
22/05/24
03:43:45.00
Analyst

250.000000
1
Lambda 1050
1050L1210281
PerkinElmer UV WinLab 6.0.4.0738 / 1.61.00 Lambda 900

0
0
3350/servo 860.8/5
0
0
UV/VIS
1
1
1
DoubleDePol,CommonBeamDepol,RBeamAtt,SBeamAtt,150mm sphere / downward view
0
0
0
0
Program
Program
3350/servo 860.8/5
3350/0.24 860.8/0.16
3350/0.24 860.8/0.16
0
5
 
 
 
0
 
860.8
319.2
860.8
Front
100
on
S:100 R:100
0
0
0
0
 
0
 
 
 
0
 
 
0
0
0
0
0
 
 
 
 
0
0


0
0
#HDR
-1
-1
#GR
nm
%R
1.0
0.0
2000.000000
-10.000000
176
8
99.666273
77.667481
#DATA
2000.000000	94.948000
1990.000000	94.855211
1980.000000	95.011417
1970.000000	94.873467
1960.000000	94.651235
1950.000000	93.743268
1940.000000	94.492103
1930.000000	94.193370
1920.000000	94.452914
1910.000000	94.683928
1900.000000	95.330543
1890.000000	96.310472
1880.000000	96.054168
1870.000000	98.225155
1860.000000	96.893184
1850.000000	97.376081
1840.000000	97.800640
1830.000000	97.938256
1820.000000	97.591197
1810.000000	98.125100
1800.000000	97.860885
1790.000000	97.117837
1780.000000	98.444538
1770.000000	98.488704
1760.000000	97.730529
1750.000000	98.066912
1740.000000	98.062673
1730.000000	97.916472
1720.000000	98.247527
1710.000000	98.016022
1700.000000	98.070627
1690.000000	97.940534
1680.000000	98.363970
1670.000000	98.052210
1660.000000	98.233316
1650.000000	98.471032
1640.000000	98.778045
1630.000000	98.286570
1620.000000	98.382334
1610.000000	97.801541
1600.000000	98.100359
1590.000000	97.885106
1580.000000	99.343879
1570.000000	98.641746
1560.000000	98.251106
1550.000000	98.208059
1540.000000	98.688765
1530.000000	99.101348
1520.000000	98.749691
1510.000000	97.986658
1500.000000	97.718373
1490.000000	97.542016
1480.000000	98.641316
1470.000000	97.565381
1460.000000	98.028474
1450.000000	98.363825
1440.000000	98.358336
1430.000000	98.389951
1420.000000	98.399133
1410.000000	98.333359
1400.000000	97.815079
1390.000000	98.733602
1380.000000	97.489683
1370.000000	98.807239
1360.000000	98.232796
1350.000000	98.277794
1340.000000	98.818880
1330.000000	98.429177
1320.000000	98.978216
1310.000000	98.683667
1300.000000	98.809257
1290.000000	99.155834
1280.000000	99.111264
1270.000000	98.837300
1260.000000	98.971081
1250.000000	98.943061
1240.000000	98.659126
1230.000000	98.767851
1220.000000	98.482140
1210.000000	98.998502
1200.000000	98.967891
1190.000000	98.992954
1180.000000	98.736021
1170.000000	98.280924
1160.000000	99.176390
1150.000000	98.729610
1140.000000	98.902994
1130.000000	98.860222
1120.000000	99.258683
1110.000000	99.100662
1100.000000	98.304930
1090.000000	98.805504
1080.000000	99.114126
1070.000000	99.631838
1060.000000	99.387104
1050.000000	99.112300
1040.000000	98.473238
1030.000000	98.825000
1020.000000	98.618933
1010.000000	98.629747
1000.000000	99.257107
990.000000	99.666273
980.000000	99.465113
970.000000	98.446563
960.000000	98.517767
950.000000	99.664423
940.000000	99.390923
930.000000	99.075942
920.000000	98.546378
910.000000	98.981646
900.000000	98.825655
890.000000	99.349784
880.000000	99.323418
870.000000	99.424327
860.000000	99.302939
850.000000	98.405340
840.000000	99.088267
830.000000	98.929444
820.000000	98.887001
810.000000	98.842891
800.000000	99.014408
790.000000	98.853518
780.000000	99.133758
770.000000	98.886669
760.000000	99.024197
750.000000	98.930299
740.000000	98.940621
730.000000	99.009578
720.000000	99.025266
710.000000	99.124119
700.000000	99.266450
690.000000	99.210536
680.000000	99.347554
670.000000	99.361601
660.000000	99.305895
650.000000	99.247448
640.000000	99.299311
630.000000	99.217078
620.000000	99.307644
610.000000	99.265574
600.000000	99.216268
590.000000	99.290111
580.000000	99.206318
570.000000	99.282174
560.000000	99.283005
550.000000	99.284708
540.000000	99.241250
530.000000	99.033912
520.000000	99.119266
510.000000	99.054532
500.000000	98.981904
490.000000	98.952105
480.000000	98.895996
470.000000	98.863454
460.000000	98.800612
450.000000	98.733037
440.000000	98.560738
430.000000	98.563501
420.000000	98.416684
410.000000	98.301759
400.000000	98.350875
390.000000	98.045348
380.000000	97.793494
370.000000	97.468385
360.000000	96.475197
350.000000	96.071283
340.000000	95.568756
330.000000	94.623728
320.000000	93.435665
310.000000	92.770857
300.000000	90.746206
290.000000	88.203340
280.000000	85.102161
270.000000	82.976290
260.000000	81.365954
250.000000	77.667481
