PE UV       SUBTECH     SPECTRUM    ASCII       PEDS        4.00        
   -1
Sample1080 South.Sample.Raw.asc
22/06/09
00:24:56.00
22/06/09
00:24:56.00
Analyst
Silizium Wafer Mikhail Itin South
250.000000
1
Lambda 1050
1050L1210281
PerkinElmer UV WinLab 6.0.4.0738 / 1.61.00 Lambda 900

0
0
3350/20 889.8/5
0
0
UV/VIS
1
1
1
DoubleDePol,CommonBeamDepol,RBeamAtt,SBeamAtt,universal reflectance
0
0
0
0
Program
Program
3350/20 889.8/5
3350/0.52 889.8/0.52
3350/0.52 889.8/0.52
0
3350/8 3000/6 2585/4 2480/2 1810/1
 
 
 
0
 
889.8
319.2
889.8
Front
39
off
3350/S:100 3350/R:100
0
0
0
0
 
0
 
 
 
0
 
 
0
0
8.0
5.00
5.00
False
False
358L1302134
 
0
0


0
0
#HDR
-1
-1
#GR
nm
%R
1.0
0.0
1100.000000
-5.000000
171
8
71.810196
31.317510
#DATA
1100.000000	31.317510
1095.000000	31.329439
1090.000000	31.341724
1085.000000	31.382167
1080.000000	31.362889
1075.000000	31.357658
1070.000000	31.429556
1065.000000	31.403036
1060.000000	31.389033
1055.000000	31.407901
1050.000000	31.399473
1045.000000	31.406507
1040.000000	31.412552
1035.000000	31.446223
1030.000000	31.437490
1025.000000	31.488001
1020.000000	31.500728
1015.000000	31.470294
1010.000000	31.501158
1005.000000	31.492929
1000.000000	31.491250
995.000000	31.526227
990.000000	31.580314
985.000000	31.502740
980.000000	31.574680
975.000000	31.524018
970.000000	31.544737
965.000000	31.608540
960.000000	31.586898
955.000000	31.614300
950.000000	31.654017
945.000000	31.589170
940.000000	31.601557
935.000000	31.604825
930.000000	31.619570
925.000000	31.641562
920.000000	31.703265
915.000000	31.577043
910.000000	31.516722
905.000000	31.519704
900.000000	31.458466
895.000000	31.329982
890.000000	31.528939
885.000000	32.773659
880.000000	32.792098
875.000000	32.821286
870.000000	32.852693
865.000000	32.879282
860.000000	32.887912
855.000000	32.935395
850.000000	32.960632
845.000000	32.967468
840.000000	33.021217
835.000000	33.052661
830.000000	33.084070
825.000000	33.107834
820.000000	33.140664
815.000000	33.175490
810.000000	33.220555
805.000000	33.270731
800.000000	33.279514
795.000000	33.316248
790.000000	33.363490
785.000000	33.398561
780.000000	33.450937
775.000000	33.459671
770.000000	33.516226
765.000000	33.545288
760.000000	33.602602
755.000000	33.641160
750.000000	33.686302
745.000000	33.721326
740.000000	33.767160
735.000000	33.831956
730.000000	33.887839
725.000000	33.929831
720.000000	33.976519
715.000000	34.047148
710.000000	34.098915
705.000000	34.149058
700.000000	34.209451
695.000000	34.269284
690.000000	34.319613
685.000000	34.416276
680.000000	34.442615
675.000000	34.508009
670.000000	34.586210
665.000000	34.665343
660.000000	34.729139
655.000000	34.816348
650.000000	34.880261
645.000000	34.959894
640.000000	35.038147
635.000000	35.135031
630.000000	35.217273
625.000000	35.304805
620.000000	35.407501
615.000000	35.515162
610.000000	35.614171
605.000000	35.725071
600.000000	35.828068
595.000000	35.933723
590.000000	36.051433
585.000000	36.180158
580.000000	36.314533
575.000000	36.448419
570.000000	36.585633
565.000000	36.734135
560.000000	36.883797
555.000000	37.061366
550.000000	37.213518
545.000000	37.384550
540.000000	37.567708
535.000000	37.745865
530.000000	37.946561
525.000000	38.143939
520.000000	38.345499
515.000000	38.550787
510.000000	38.705526
505.000000	38.856961
500.000000	39.014962
495.000000	39.269598
490.000000	39.564810
485.000000	39.869332
480.000000	40.251516
475.000000	40.558968
470.000000	40.880540
465.000000	41.192968
460.000000	41.461476
455.000000	41.775290
450.000000	42.173062
445.000000	42.624456
440.000000	43.091646
435.000000	43.609999
430.000000	44.176318
425.000000	44.816503
420.000000	45.500427
415.000000	46.181368
410.000000	46.985913
405.000000	47.877841
400.000000	48.950326
395.000000	50.064461
390.000000	51.463505
385.000000	53.042929
380.000000	54.878857
375.000000	56.791997
370.000000	58.237900
365.000000	58.691705
360.000000	57.944441
355.000000	57.149967
350.000000	56.447409
345.000000	56.051169
340.000000	55.788602
335.000000	55.744804
330.000000	56.048700
325.000000	56.190366
320.000000	56.814469
315.000000	57.264200
310.000000	58.324443
305.000000	59.649930
300.000000	61.597965
295.000000	64.302339
290.000000	67.325475
285.000000	69.758928
280.000000	71.110707
275.000000	71.810196
270.000000	71.587224
265.000000	70.296427
260.000000	68.573798
255.000000	66.612764
250.000000	64.685147
