PE UV       SUBTECH     SPECTRUM    ASCII       PEDS        4.00        
   -1
Sample1083 North.Sample.Raw.asc
22/06/09
00:09:29.00
22/06/09
00:09:29.00
Analyst
Silizium Wafer Mikhail Itin North
250.000000
1
Lambda 1050
1050L1210281
PerkinElmer UV WinLab 6.0.4.0738 / 1.61.00 Lambda 900

0
0
3350/20 889.8/5
0
0
UV/VIS
1
1
1
DoubleDePol,CommonBeamDepol,RBeamAtt,SBeamAtt,universal reflectance
0
0
0
0
Program
Program
3350/20 889.8/5
3350/0.52 889.8/0.52
3350/0.52 889.8/0.52
0
3350/8 3000/6 2585/4 2480/2 1810/1
 
 
 
0
 
889.8
319.2
889.8
Front
39
off
3350/S:100 3350/R:100
0
0
0
0
 
0
 
 
 
0
 
 
0
0
8.0
5.00
5.00
False
False
358L1302134
 
0
0


0
0
#HDR
-1
-1
#GR
nm
%R
1.0
0.0
1100.000000
-5.000000
171
8
71.027568
31.243470
#DATA
1100.000000	31.298721
1095.000000	31.270402
1090.000000	31.243470
1085.000000	31.283277
1080.000000	31.308614
1075.000000	31.315937
1070.000000	31.329490
1065.000000	31.346048
1060.000000	31.321167
1055.000000	31.309085
1050.000000	31.352091
1045.000000	31.337981
1040.000000	31.368371
1035.000000	31.379267
1030.000000	31.387189
1025.000000	31.421511
1020.000000	31.402816
1015.000000	31.383196
1010.000000	31.396276
1005.000000	31.407909
1000.000000	31.429250
995.000000	31.401796
990.000000	31.435271
985.000000	31.441209
980.000000	31.507162
975.000000	31.499118
970.000000	31.468615
965.000000	31.500445
960.000000	31.461976
955.000000	31.491188
950.000000	31.486610
945.000000	31.541816
940.000000	31.488795
935.000000	31.467110
930.000000	31.449086
925.000000	31.424162
920.000000	31.519064
915.000000	31.567173
910.000000	31.484058
905.000000	31.495274
900.000000	31.415268
895.000000	31.376364
890.000000	31.376397
885.000000	32.714265
880.000000	32.737765
875.000000	32.755985
870.000000	32.799748
865.000000	32.822916
860.000000	32.832121
855.000000	32.867735
850.000000	32.881288
845.000000	32.924372
840.000000	32.958972
835.000000	32.991983
830.000000	33.024050
825.000000	33.056740
820.000000	33.072103
815.000000	33.120551
810.000000	33.158802
805.000000	33.207330
800.000000	33.214077
795.000000	33.250150
790.000000	33.291099
785.000000	33.312385
780.000000	33.383536
775.000000	33.416149
770.000000	33.445554
765.000000	33.471204
760.000000	33.527005
755.000000	33.578174
750.000000	33.603702
745.000000	33.644086
740.000000	33.703288
735.000000	33.760493
730.000000	33.810832
725.000000	33.868021
720.000000	33.908758
715.000000	33.976468
710.000000	34.007413
705.000000	34.061456
700.000000	34.112835
695.000000	34.181174
690.000000	34.229968
685.000000	34.325314
680.000000	34.377250
675.000000	34.434818
670.000000	34.493866
665.000000	34.564867
660.000000	34.638625
655.000000	34.740400
650.000000	34.793295
645.000000	34.870200
640.000000	34.932770
635.000000	35.037855
630.000000	35.124827
625.000000	35.217816
620.000000	35.310236
615.000000	35.399369
610.000000	35.517541
605.000000	35.618032
600.000000	35.726108
595.000000	35.822506
590.000000	35.947625
585.000000	36.061221
580.000000	36.199454
575.000000	36.321242
570.000000	36.470480
565.000000	36.609158
560.000000	36.760055
555.000000	36.932398
550.000000	37.085299
545.000000	37.255366
540.000000	37.436122
535.000000	37.625227
530.000000	37.813973
525.000000	38.005115
520.000000	38.208892
515.000000	38.418000
510.000000	38.575584
505.000000	38.717121
500.000000	38.921517
495.000000	39.119450
490.000000	39.409717
485.000000	39.712069
480.000000	40.091962
475.000000	40.397859
470.000000	40.720034
465.000000	41.032551
460.000000	41.292209
455.000000	41.604300
450.000000	41.991029
445.000000	42.435372
440.000000	42.903140
435.000000	43.427544
430.000000	43.981865
425.000000	44.578370
420.000000	45.267515
415.000000	45.949664
410.000000	46.775326
405.000000	47.666785
400.000000	48.704125
395.000000	49.841224
390.000000	51.214347
385.000000	52.764550
380.000000	54.610316
375.000000	56.493900
370.000000	58.035856
365.000000	58.216983
360.000000	57.608002
355.000000	56.695150
350.000000	56.097898
345.000000	55.568443
340.000000	55.329924
335.000000	55.299848
330.000000	55.442594
325.000000	55.788585
320.000000	56.372764
315.000000	56.804466
310.000000	57.745490
305.000000	59.046713
300.000000	60.979643
295.000000	63.653942
290.000000	66.726335
285.000000	69.052785
280.000000	70.336749
275.000000	71.027568
270.000000	70.757454
265.000000	69.439077
260.000000	67.598864
255.000000	65.623641
250.000000	63.617246
